Transcript: A787_001109_cleaned.txt Sampling_interval: 30000.0 Prop_TTS: 0.05 TTS: 2049968.35 Feature: xds(T)
30000.0 68
9418.97 5723.68 7440.78 9720.21 7822.36 7591.41 8244.11 6938.71 7480.95 8595.56 7380.53 7983.03 5653.39 9017.3 8254.15 9529.42 7370.49 8033.23 6416.54 6617.38 7792.24 6235.8 7902.69 11638.15 7450.82 8143.69 6175.55 7169.66 7691.82 7330.33 7350.41 6245.84 6296.05 6506.92 8886.76 9017.3 8756.22 8645.77 9177.97 7410.66 6667.58 6336.21 7119.45 9248.26 7480.95 9308.51 9007.26 4669.32 8475.06 6376.38 7701.86 9027.35 8374.65 6396.46 5964.68 8234.06 8936.97 6948.75 5924.51 6296.05 6958.79 7671.74 7320.28 8113.57 8434.89 6235.8 7772.15 7993.07 7792.24 6677.63 5974.72 6215.71 9961.21 5783.93 6436.63 7069.25 8856.64 6416.54 7360.45 7450.82 6296.05 7079.29 8535.31 7701.86 8203.94 9860.79 6988.91 8314.4 7310.24 7049.16 9067.51 8475.06 8254.15 6838.29 8495.14 9911.0 7631.57 8957.05 8746.18 9238.22
Transcript: A787_001109_cleaned.txt Sampling_interval: 30000.0 Prop_TTS: 0.1 TTS: 4099936.7 Feature: xds(T)
30000.0 136
6783.06 9323.57 6471.77 7059.2 7827.38 7847.46 7285.14 6958.79 8947.01 6958.79 7972.98 8244.11 7430.74 7967.96 6732.85 7591.41 7591.41 7556.26 7430.74 7074.27 7280.12 7787.22 8480.08 8439.92 7947.88 7546.22 7450.82 7827.38 7641.61 9373.78 7189.74 8706.02 7787.22 7696.84 7927.8 8575.48 7330.33 9238.22 7767.13 8193.9 9880.88 7782.19 8806.43 8178.84 7430.74 9007.26 6793.1 7310.24 7852.49 7942.86 9017.3 8761.24 7174.68 7521.11 7526.14 7209.83 7742.03 7681.78 6757.96 8158.75 7611.49 7631.57 9323.57 7917.76 8148.71 7576.34 7531.16 7701.86 6722.81 7817.34 8299.33 8334.48 9720.21 6597.29 8515.23 8113.57 9062.49 8896.81 7380.53 8977.14 8013.15 6793.1 7686.8 8585.52 7526.14 8731.12 7681.78 8008.13 7586.38 7224.89 7019.04 6577.21 8565.43 7410.66 7767.13 7626.55 6491.86 8168.79 6265.92 9474.19
Transcript: A787_001109_cleaned.txt Sampling_interval: 30000.0 Prop_TTS: 0.2 TTS: 8199873.4 Feature: xds(T)
30000.0 273
8495.14 8525.27 7794.75 7031.59 8279.25 8319.42 6627.42 8010.64 9220.65 7159.62 7847.46 8068.38 8050.81 7237.44 7849.97 8633.22 6685.16 7591.41 6773.02 8070.89 7132.0 7249.99 6672.6 7847.46 7342.88 7892.65 7799.77 7568.81 8324.44 7706.88 7365.47 8424.85 8301.84 7922.78 8645.77 7829.89 7375.51 7576.34 8284.27 8630.7 7978.0 8349.54 7824.87 7907.71 7488.48 7453.33 7450.82 7814.83 7393.08 7880.1 8000.6 8003.11 7455.84 8133.65 7634.08 7257.52 8703.51 8239.08 7654.16 8482.59 7870.06 7669.23 7993.07 7531.16 7616.51 8414.81 7578.85 7681.78 7506.05 8033.23 7719.43 9449.09 8439.92 7350.41 7044.14 8344.52 8090.97 7764.62 7184.72 7747.05 7724.46 7533.67 8545.35 8721.08 8429.87 7132.0 8181.35 7676.76 7275.1 7498.52 8098.5 7757.09 7912.73 6903.56 7887.63 7440.78 8173.81 8058.34 8095.99 7719.43
Transcript: A787_001109_cleaned.txt Sampling_interval: 30000.0 Prop_TTS: 0.3 TTS: 12299810.1 Feature: xds(T)
30000.0 409
7517.77 7375.51 7040.79 7355.43 7668.39 6836.62 7762.11 7368.82 8041.6 7534.5 8468.37 7614.84 7911.06 8039.93 8870.03 6696.03 7849.14 7445.8 6968.83 7639.94 6950.42 6841.64 7152.92 8054.99 7932.82 7425.72 7869.22 6945.4 7673.41 7594.75 7737.01 6682.65 7062.55 8290.97 6905.23 7173.01 7332.0 8219.0 7186.4 8264.19 7845.79 8779.65 8168.79 7999.76 8252.47 7872.57 7792.24 7233.26 8652.46 7917.76 8003.11 7497.68 8737.81 8254.15 6952.09 7499.36 7209.83 8388.03 8992.2 7902.69 7248.32 7951.23 8133.65 8558.74 7410.66 7772.15 8192.22 8140.34 8846.6 8177.16 7748.72 8418.16 7457.52 8046.62 7089.33 7941.19 8687.61 7906.04 8399.75 7904.37 8044.95 7539.52 8461.67 8235.74 7875.92 7728.64 7360.45 7733.66 6921.97 7979.68 7946.21 7775.5 6997.28 8625.68 7641.61 8103.52 7162.97 8031.56 7765.46 8680.91
Transcript: A787_001109_cleaned.txt Sampling_interval: 30000.0 Prop_TTS: 0.4 TTS: 16399746.8 Feature: xds(T)
30000.0 546
8424.85 8077.16 7940.35 7558.77 7836.17 7449.57 7866.29 8085.95 7182.21 7862.53 7866.29 6318.64 8644.51 7754.58 7898.93 8293.06 7260.03 8536.57 7319.03 6958.79 7327.81 7508.56 7679.27 7665.46 8112.31 8227.79 8075.91 7651.65 7238.7 7919.01 7769.64 8274.23 8006.87 7110.67 7367.98 7203.55 7834.91 8072.14 7439.53 8025.7 7576.34 7555.0 8074.65 7811.06 7211.08 7437.02 7951.65 7020.29 8042.02 7801.02 8358.33 7680.52 7922.78 7855.0 7939.09 7749.56 7561.28 8123.61 8280.51 8119.84 8272.97 7479.69 7253.76 8874.21 7789.73 7621.53 8295.57 7754.58 7833.66 7062.97 7453.33 7757.09 7536.18 8555.39 8158.75 8094.74 7414.42 8025.7 7480.95 8225.28 7978.0 8153.73 8234.06 7932.82 7499.78 9052.45 7472.16 6632.44 7847.46 7910.22 8060.85 6963.81 7814.83 9028.6 8306.87 7993.07 8313.14 8057.08 7650.4 8234.06
Transcript: A787_001109_cleaned.txt Sampling_interval: 30000.0 Prop_TTS: 0.5 TTS: 20499683.5 Feature: xds(T)
30000.0 683
7560.28 8080.43 7479.94 7484.96 7897.67 8137.67 7857.51 7418.69 8507.19 7552.24 7631.57 8287.28 7794.24 8569.45 8342.51 7626.55 7650.65 7662.7 7639.6 7334.34 8180.84 7825.37 7506.05 7800.27 8293.31 7919.76 8044.28 8216.99 7017.03 8267.2 7024.06 7578.35 8570.46 7955.91 7965.95 7805.29 8357.57 8698.99 8077.42 7476.93 7836.42 7823.36 7842.44 7247.98 8148.71 8019.17 7232.92 7192.76 8056.33 7759.1 8137.67 7630.57 7338.36 8213.98 7633.58 7668.73 8045.28 8460.0 7210.83 8181.85 8075.41 8425.86 7571.32 7800.27 8302.35 7680.77 7530.15 7772.15 7216.86 7636.59 7603.46 8813.46 7913.74 7385.55 7478.94 8175.82 8488.11 8318.41 7755.08 7332.33 8021.18 7283.13 7347.4 8397.74 7336.35 7819.35 8328.45 7665.71 7342.38 8369.62 8324.44 7647.64 7741.02 7891.65 7821.36 8473.05 7908.72 7937.84 8640.75 7671.74
Transcript: A787_001109_cleaned.txt Sampling_interval: 30000.0 Prop_TTS: 0.6 TTS: 24599620.2 Feature: xds(T)
30000.0 819
7883.45 7922.78 7552.91 7609.81 7701.86 7990.56 7061.71 7454.17 8386.36 7459.19 7749.56 7956.25 7778.01 7719.43 8359.58 7719.43 7737.84 7373.84 7376.35 7933.65 7496.01 7256.69 8070.89 7114.43 7910.22 7311.92 7948.72 7453.33 6917.79 7571.32 7335.35 7440.78 7710.23 7588.89 7614.84 7588.06 7399.78 7727.8 8172.14 8081.77 7813.99 8365.44 8331.13 8285.11 7660.02 7739.52 7962.11 7681.78 8100.18 7469.23 7897.67 7748.72 8248.29 7998.92 8264.19 8056.66 8172.14 7338.69 7713.58 7459.19 7412.33 7851.65 7901.02 8008.97 6883.48 7784.7 7460.03 8077.58 7863.36 7824.03 7809.81 7378.86 8404.77 7596.43 7819.85 8073.4 7751.23 8524.43 7287.65 7668.39 7841.61 7246.65 7710.23 8080.93 7914.41 7933.65 7214.85 7649.14 7829.06 7710.23 7534.5 7201.46 7675.92 7246.65 7938.68 7468.4 8400.59 8013.15 7557.1 7404.8
Transcript: A787_001109_cleaned.txt Sampling_interval: 30000.0 Prop_TTS: 0.7 TTS: 28699556.9 Feature: xds(T)
30000.0 956
7725.53 7911.3 8099.94 7562.72 7846.75 7790.08 7220.59 7691.82 7687.52 7293.03 8385.4 8022.47 8194.62 7767.85 7848.9 7867.55 7718.36 7085.02 8186.01 7787.22 7913.45 8205.37 7567.74 7699.71 7390.57 7937.84 7889.07 7372.64 7181.14 7970.11 8048.3 8188.88 8424.14 7120.89 7597.86 7617.23 7841.01 8153.73 7190.46 7493.14 7437.91 7080.0 7671.02 7386.99 7989.48 7461.58 7056.33 7848.18 7463.02 7587.1 7686.08 7568.45 7678.91 7682.5 8137.23 7759.24 7728.4 8043.27 7444.37 8054.75 7696.84 8096.35 7309.52 7775.02 8250.56 7448.67 7632.29 7995.94 7838.14 7567.74 7460.87 8274.95 7396.31 7565.58 7734.14 7747.77 8003.11 7283.7 7866.11 7649.5 7588.54 7779.33 7443.65 7435.76 7716.92 7617.94 7277.25 7920.62 7682.5 7528.29 7835.27 7633.01 7747.05 8017.45 7938.56 7808.73 7430.02 8096.35 7721.95 7964.38
Transcript: A787_001109_cleaned.txt Sampling_interval: 30000.0 Prop_TTS: 0.8 TTS: 32799493.6 Feature: xds(T)
30000.0 1093
8296.82 8405.4 7570.69 8006.87 8475.06 7628.43 7841.82 7635.96 7715.67 8027.58 7713.79 7817.97 7661.7 7865.04 7953.53 7548.73 8166.28 7799.77 8028.84 8197.66 7644.75 8180.09 7670.48 7374.88 8047.04 7851.23 7293.3 7698.1 7708.77 7607.72 7489.11 8135.53 7623.41 8080.93 8067.12 7706.88 7223.01 7801.02 7777.8 8157.5 8020.05 7814.2 7623.41 7275.72 7233.68 7396.22 7307.1 7687.43 7688.68 8021.94 7780.94 7491.62 7949.14 7701.23 7784.08 8135.53 7742.66 7824.87 7644.75 8185.11 7927.8 8184.48 8114.19 7675.5 7619.02 7711.9 7559.4 7939.09 7715.04 8053.94 8170.05 7784.08 7742.66 8050.81 8459.37 7160.87 8735.51 7956.67 7667.97 7750.19 8069.01 8116.7 7361.71 7637.85 7690.57 7549.98 7656.05 8060.85 7970.47 7161.5 7636.59 7496.01 7915.24 7913.36 7801.02 8373.39 7939.72 7755.21 7999.34 8102.9
Transcript: A787_001109_cleaned.txt Sampling_interval: 30000.0 Prop_TTS: 0.9 TTS: 36899430.300000004 Feature: xds(T)
30000.0 1229
7777.73 7578.02 8059.45 7802.28 7724.73 7929.47 7573.0 7605.91 7564.63 8028.21 8309.93 7841.89 8012.59 7684.57 7248.32 7749.28 7569.65 7647.19 7460.87 7393.92 7979.12 8279.25 8038.81 7165.2 7814.55 8015.94 7806.74 8365.16 7829.06 7990.28 7244.97 7532.83 7566.3 8080.09 7736.45 7658.91 8073.96 7951.79 7482.62 7824.03 7783.31 7790.56 7537.29 7933.93 7807.3 7545.1 7720.83 7724.18 7348.73 7893.21 7560.72 7998.65 7664.49 7456.4 7333.11 8401.98 7801.16 7455.29 7780.52 8073.4 7655.56 7258.36 7737.01 7821.8 7813.43 7523.35 7995.86 7781.08 7642.73 7597.54 8049.41 8000.32 7854.72 7585.27 7700.19 7731.99 7503.82 8197.8 7548.45 7559.61 7849.14 7674.53 8095.16 7773.27 7859.18 7230.47 7888.19 7516.09 7609.26 7686.8 7816.22 7780.52 7638.82 7819.57 8188.32 8053.87 7830.73 7897.67 7764.9 7820.13
